File: DSC/PLA-3-20 .txt
Ruben_A''cutAC                                                  08.10.2021 14:32
________________________________________________________________________________

Curve Name:
  Ruben_A''cutAC, 08.10.2021 14:27:56
  Performed 08.10.2021 14:27:56
Curve Values:
          Index              t             Ts          Value
                           [s]           [°C]           [mW]
              0              0       -99,9935        2,35628
             21             21       -93,0081       -2,31819
             42             42       -86,0207       -4,85431
             63             63        -79,024       -4,73268
             84             84       -72,0269       -4,56819
            105            105         -65,03       -4,45475
            126            126       -58,0341       -4,47538
            147            147       -51,0387       -4,54761
            168            168       -44,0435       -4,60524
            189            189       -37,0478       -4,58798
            210            210       -30,0518        -4,5497
            231            231       -23,0565        -4,5549
            252            252       -16,0615       -4,57214
            273            273       -9,06636        -4,5748
            294            294        -2,0713       -4,57647
            315            315        4,92393       -4,56824
            336            336        11,9187       -4,58871
            357            357         18,913       -4,62791
            378            378        25,9067       -4,69404
            399            399        32,8995       -4,79638
            420            420        39,8904       -4,97873
            441            441        46,8745       -5,43733
            462            462        53,8518        -6,1331
            483            483        60,8509       -5,90615
            504            504        67,8449        -5,8863
            525            525        74,8367       -5,94993
            546            546        81,8272        -6,0549
            567            567         88,818        -6,1461
            588            588        95,8089       -6,23089
            609            609          102,8       -6,30315
            630            630        109,791       -6,37433
            651            651        116,783       -6,43512
            672            672        123,772       -6,55989
            693            693         130,75       -6,99254
            714            714        137,685       -8,57574
            735            735        144,578       -11,1972
            756            756        151,449       -14,2442
            777            777        158,682       -8,02835
            798            798        165,728       -6,72012
            819            819        172,728       -6,56774
            840            840        179,723       -6,54238
            861            861        186,716       -6,56255
            882            882         193,71       -6,57886
            903            903        198,491       -11,3795
            924            924        192,278        6,34374
            945            945        185,334         7,7832
            966            966        178,328        7,80292
            987            987        171,318        7,72803
           1008           1008        164,307        7,63398
           1029           1029        157,296        7,53598
           1050           1050        150,286        7,46227
           1071           1071        143,277        7,39387
           1092           1092        136,266        7,29614
           1113           1113        129,259        7,28719
           1134           1134        122,255        7,40128
           1155           1155        115,248        7,40808
           1176           1176        108,239        7,36743
           1197           1197        101,228        7,24606
           1218           1218          94,22        7,24507
           1239           1239        87,2116        7,22039
           1260           1260        80,2031        7,19401
           1281           1281        73,1947        7,17259
           1302           1302        66,1866        7,16478
           1323           1323        59,1782        7,14975
           1344           1344        52,1699         7,1204
           1365           1365        45,1593        6,99128
           1386           1386        38,1387        6,38929
           1407           1407        31,1175        5,69492
           1428           1428        24,1044        5,33382
           1449           1449        17,0956        5,16961
           1470           1470         10,089        5,10874
           1491           1491        3,08151        4,98656
           1512           1512       -3,92504        4,90799
           1533           1533       -10,9307        4,88141
           1554           1554       -17,9357        4,89136
           1575           1575       -24,9408        4,88866
           1596           1596       -31,9454        4,91283
           1617           1617       -38,9497        4,96905
           1638           1638        -45,954        5,00713
           1659           1659       -52,9581         5,0737
           1680           1680        -59,962        5,16299
           1701           1701       -66,9668        5,11075
           1722           1722       -73,9729        4,78553
           1743           1743       -80,9785        4,43743
           1764           1764        -87,983        4,19251
           1785           1785       -94,9867        4,03189
           1806           1806       -97,9881        3,99654
           1827           1827       -90,9754        6,61267
           1848           1848       -84,0186       -4,14492
           1869           1869       -77,0252       -4,75008
           1890           1890       -70,0283       -4,61913
           1911           1911       -63,0317       -4,53494
           1932           1932       -56,0359       -4,55974
           1953           1953       -49,0388       -4,41523
           1974           1974        -42,044       -4,53049
           1995           1995       -35,0484       -4,52501
           2016           2016       -28,0523       -4,47728
           2037           2037       -21,0569       -4,47996
           2058           2058       -14,0616       -4,48083
           2079           2079       -7,06635       -4,47901
           2100           2100     -0,0712408       -4,48459
           2121           2121        6,92377       -4,49488
           2142           2142        13,9187       -4,50756
           2163           2163        20,9134       -4,53252
           2184           2184        27,9067       -4,62144
           2205           2205        34,8984       -4,77919
           2226           2226        41,8846       -5,16806
           2247           2247        48,8545       -6,21678
           2268           2268        55,8369       -6,66479
           2289           2289         62,832       -6,57334
           2310           2310        69,8248       -6,57077
           2331           2331        76,8177       -6,56599
           2352           2352        83,8112       -6,54539
           2373           2373        90,8045       -6,53682
           2394           2394        97,7978       -6,53042
           2415           2415        104,792       -6,48887
           2436           2436        111,791       -6,33596
           2457           2457        118,792       -6,11838
           2478           2478        125,789       -6,02745
           2499           2499        132,779       -6,13517
           2520           2520        139,763       -6,40041
           2541           2541        146,717       -7,45872
           2562           2562        153,723       -7,12038
           2583           2583        160,739       -6,55385
           2604           2604        167,733       -6,54009
           2625           2625        174,727       -6,54647
           2646           2646        181,721       -6,55928
           2667           2667        188,714       -6,57374
           2688           2688        195,708       -6,59382
           2695           2695        198,039       -6,60076

Results:
  Step	-86,39e-03 Wg^-1
   	-0,92 mW
  Onset	42,86 °C
  Inflect. Pt.	49,20 °C
  Midpoint	45,42 °C

  Integral	-352,50 mJ
    normalized	-32,94 Jg^-1
  Onset	136,53 °C
  Peak	151,12 °C

  Step	-0,19 Wg^-1
   	-2,03 mW
  Onset	39,61 °C
  Inflect. Pt.	47,53 °C
  Midpoint	44,94 °C

  Integral	-43,46 mJ
    normalized	-4,06 Jg^-1
  Onset	141,98 °C
  Peak	149,37 °C

Sample:
  Ruben_A''cutAC, 10,7000 mg

________________________________________________________________________________
Not signed                                                         STARe SW 9.30