File: DSC/PLA-4-20.txt
Ruben_CutestEACPLA20                                            16.11.2021 17:48
________________________________________________________________________________

Curve Name:
  Ruben_CutestEACPLA20, 16.11.2021 17:42:18
  Performed 16.11.2021 17:42:17
Curve Values:
          Index              t             Ts          Value
                           [s]           [°C]           [mW]
              0              0       -99,9943        2,07278
             21             21       -93,0142       -4,04316
             42             42       -86,0255       -5,97719
             63             63        -79,029       -5,72747
             84             84       -72,0323       -5,48371
            105            105        -65,036       -5,34178
            126            126       -58,0407       -5,33955
            147            147       -51,0461       -5,41574
            168            168       -44,0509       -5,38861
            189            189       -37,0552       -5,30731
            210            210         -30,06       -5,26993
            231            231       -23,0652       -5,25551
            252            252       -16,0704       -5,23857
            273            273       -9,07599       -5,23886
            294            294       -2,08135        -5,2221
            315            315        4,91328       -5,20771
            336            336        11,9073       -5,22765
            357            357         18,901        -5,2654
            378            378        25,8944       -5,31629
            399            399        32,8865       -5,42035
            420            420        39,8752       -5,66689
            441            441        46,8593       -6,09451
            462            462        53,8516       -6,14035
            483            483        60,8406       -6,31608
            504            504        67,8325       -6,35586
            525            525        74,8233       -6,43592
            546            546         81,813       -6,55135
            567            567        88,8039       -6,62229
            588            588        95,7944       -6,70368
            609            609        102,785       -6,77899
            630            630        109,776       -6,85074
            651            651        116,765       -6,95772
            672            672        123,751       -7,16955
            693            693        130,732       -7,50201
            714            714        137,666       -9,09654
            735            735        144,563       -11,5945
            756            756         151,41       -15,2698
            777            777        158,637       -9,17248
            798            798        165,693       -7,58052
            819            819        172,689       -7,49618
            840            840        179,683       -7,48527
            861            861        186,676       -7,49417
            882            882        193,668        -7,5284
            903            903        198,523        -10,676
            924            924        192,298        6,79552
            945            945        185,349        8,13164
            966            966        178,343        8,15998
            987            987        171,334        8,10349
           1008           1008        164,323        8,03069
           1029           1029        157,313        7,95853
           1050           1050        150,303        7,89196
           1071           1071        143,294        7,84199
           1092           1092        136,286        7,84486
           1113           1113        129,278        7,84867
           1134           1134        122,272        7,88626
           1155           1155        115,266        7,93999
           1176           1176        108,256        7,88896
           1197           1197        101,246        7,82269
           1218           1218        94,2362        7,77676
           1239           1239        87,2269        7,74433
           1260           1260         80,218        7,72302
           1281           1281        73,2091        7,70389
           1302           1302        66,2006        7,70355
           1323           1323        59,1918        7,69246
           1344           1344        52,1827        7,65961
           1365           1365        45,1705        7,48294
           1386           1386        38,1468         6,7631
           1407           1407         31,126        6,10551
           1428           1428        24,1128        5,76576
           1449           1449        17,1058        5,72017
           1470           1470        10,0987         5,6657
           1491           1491        3,09087        5,55907
           1512           1512       -3,91589        5,50683
           1533           1533       -10,9217        5,51574
           1554           1554       -17,9272        5,54024
           1575           1575       -24,9324        5,58385
           1596           1596       -31,9374        5,63594
           1617           1617       -38,9423        5,69808
           1638           1638        -45,947        5,77654
           1659           1659       -52,9516         5,8637
           1680           1680       -59,9564        5,91591
           1701           1701       -66,9621        5,83316
           1722           1722       -73,9696        5,37648
           1743           1743       -80,9751         5,1447
           1764           1764       -87,9802        4,87861
           1785           1785       -94,9845        4,72058
           1806           1806        -97,986        4,69701
           1827           1827       -90,9844         4,1879
           1848           1848       -84,0247        -5,5022
           1869           1869       -77,0311       -5,86291
           1890           1890       -70,0348       -5,68186
           1911           1911       -63,0392        -5,6094
           1932           1932       -56,0426       -5,41729
           1953           1953       -49,0485       -5,52289
           1974           1974       -42,0537       -5,52883
           1995           1995       -35,0582       -5,44153
           2016           2016       -28,0631       -5,40684
           2037           2037       -21,0683       -5,37547
           2058           2058       -14,0733       -5,33692
           2079           2079       -7,07907       -5,33829
           2100           2100      -0,085018       -5,35184
           2121           2121        6,90932       -5,34702
           2142           2142        13,9032       -5,36983
           2163           2163        20,8969       -5,39715
           2184           2184        27,8898       -5,45983
           2205           2205        34,8812       -5,59022
           2226           2226        41,8684       -5,89667
           2247           2247        48,8396       -6,85733
           2268           2268         55,815       -7,55977
           2289           2289        62,8098       -7,44086
           2310           2310        69,8014       -7,44605
           2331           2331        76,7931       -7,45091
           2352           2352        83,7854       -7,44073
           2373           2373        90,7779       -7,42573
           2394           2394        97,7702       -7,41975
           2415           2415        104,763       -7,40833
           2436           2436        111,756       -7,38766
           2457           2457         118,75         -7,351
           2478           2478        125,743       -7,33128
           2499           2499        132,736       -7,33793
           2520           2520        139,727       -7,38013
           2541           2541        146,715       -7,51449
           2562           2562        153,706       -7,55317
           2583           2583        160,701       -7,50368
           2604           2604        167,695        -7,4692
           2625           2625        174,688       -7,47679
           2646           2646        181,681       -7,49298
           2667           2667        188,673       -7,51634
           2688           2688        195,666       -7,53615
           2695           2695        197,997       -7,54231

Results:
  Step	-70,09e-03 Wg^-1
   	-0,74 mW
  Onset	36,08 °C
  Inflect. Pt.	43,20 °C
  Midpoint	40,68 °C

  Integral	-353,80 mJ
    normalized	-33,38 Jg^-1
  Onset	138,49 °C
  Peak	151,08 °C

  Step	-18,21e-03 Wg^-1
   	-0,19 mW
  Onset	-54,14 °C
  Inflect. Pt.	-51,71 °C
  Midpoint	-52,33 °C

  Step	-0,16 Wg^-1
   	-1,72 mW
  Onset	42,81 °C
  Inflect. Pt.	48,84 °C
  Midpoint	46,72 °C

  Integral	-3,12 mJ
    normalized	-0,29 Jg^-1
  Onset	144,42 °C
  Peak	150,37 °C

Sample:
  Ruben_CutestEACPLA20, 10,6000 mg

________________________________________________________________________________
Not signed                                                         STARe SW 9.30