File: DSC/PLA-4-30.txt
Ruben_CUTESTEACEPIA30                                           30.11.2021 14:59
________________________________________________________________________________

Curve Name:
  Ruben_CUTESTEACEPIA30, 30.11.2021 13:50:01
  Performed 30.11.2021 13:50:00
Curve Values:
          Index              t             Ts          Value
                           [s]           [°C]           [mW]
              0              0       -99,9938        2,25501
             21             21       -92,9949        1,44712
             42             42       -86,0103       -2,40464
             63             63       -79,0134       -2,65201
             84             84       -72,0156       -2,65544
            105            105       -65,0187       -2,77284
            126            126       -58,0231       -3,03177
            147            147       -51,0265       -3,11121
            168            168       -44,0302       -3,19618
            189            189       -37,0338       -3,24769
            210            210       -30,0376       -3,29929
            231            231       -23,0417       -3,36125
            252            252       -16,0459       -3,41848
            273            273        -9,0504       -3,47454
            294            294        -2,0548       -3,51758
            315            315        4,94167       -3,50283
            336            336        11,9378       -3,51024
            357            357        18,9326       -3,58306
            378            378        25,9266       -3,69475
            399            399        32,9193       -3,85223
            420            420        39,9094       -4,11381
            441            441        46,8974       -4,44428
            462            462        53,8915       -4,49179
            483            483        60,8859       -4,52155
            504            504        67,8783       -4,61694
            525            525        74,8701       -4,73356
            546            546        81,8624       -4,82241
            567            567        88,8554       -4,88472
            588            588        95,8483       -4,94554
            609            609        102,841       -5,01297
            630            630        109,834       -5,05719
            651            651        116,828       -5,10004
            672            672        123,818       -5,22322
            693            693        130,801       -5,55733
            714            714        137,725       -7,48723
            735            735        144,604       -10,5048
            756            756        151,468       -13,7585
            777            777        158,727        -6,9008
            798            798        165,758       -5,98149
            819            819        172,753        -5,9531
            840            840        179,747       -5,98913
            861            861        186,739       -6,03973
            882            882        193,731       -6,10632
            903            903        198,464        -12,001
            924            924        192,222        5,05917
            945            945        185,282        6,57427
            966            966         178,28        6,66248
            987            987        171,273        6,63327
           1008           1008        164,264        6,55399
           1029           1029        157,254        6,46027
           1050           1050        150,245        6,38651
           1071           1071        143,238        6,35026
           1092           1092        136,233        6,37889
           1113           1113        129,225        6,33524
           1134           1134        122,217        6,28609
           1155           1155        115,207        6,18426
           1176           1176        108,203        6,27066
           1197           1197        101,195        6,21608
           1218           1218        94,1877         6,1795
           1239           1239        87,1813        6,18543
           1260           1260        80,1738         6,1568
           1281           1281        73,1664        6,12963
           1302           1302        66,1593        6,11847
           1323           1323        59,1522        6,10398
           1344           1344        52,1448        6,06776
           1365           1365        45,1381        6,05929
           1386           1386        38,1306        6,01612
           1407           1407        31,1183        5,73111
           1428           1428        24,0998        5,10238
           1449           1449        17,0841         4,5463
           1470           1470        10,0749        4,29714
           1491           1491         3,0674         4,1236
           1512           1512        -3,9384        4,03297
           1533           1533       -10,9436         3,9739
           1554           1554       -17,9481        3,95079
           1575           1575       -24,9525        3,92297
           1596           1596       -31,9567        3,89859
           1617           1617       -38,9607         3,8809
           1638           1638       -45,9644        3,87488
           1659           1659       -52,9676        3,92321
           1680           1680       -59,9704        4,01759
           1701           1701       -66,9731        4,13676
           1722           1722       -73,9777        3,94073
           1743           1743       -80,9851        3,08707
           1764           1764       -87,9901        2,43901
           1785           1785       -94,9926        2,25018
           1806           1806       -97,9935        2,17501
           1827           1827       -90,9633        9,86826
           1848           1848        -84,009       -2,00084
           1869           1869       -77,0162       -3,06368
           1890           1890       -70,0192       -3,12787
           1911           1911       -63,0228       -3,25622
           1932           1932       -56,0262       -3,32596
           1953           1953       -49,0281        -3,2034
           1974           1974       -42,0317       -3,25802
           1995           1995        -35,035       -3,27797
           2016           2016       -28,0387       -3,31337
           2037           2037       -21,0425       -3,34691
           2058           2058       -14,0465       -3,38614
           2079           2079       -7,05085       -3,43308
           2100           2100     -0,0552389       -3,47729
           2121           2121        6,94044       -3,51225
           2142           2142        13,9352        -3,5929
           2163           2163        20,9284       -3,74847
           2184           2184        27,9182       -4,05514
           2205           2205        34,8992       -4,74434
           2226           2226        41,8775       -5,48751
           2247           2247        48,8713       -5,50097
           2268           2268        55,8655       -5,49487
           2289           2289        62,8594       -5,50053
           2310           2310        69,8535        -5,4939
           2331           2331        76,8473       -5,49888
           2352           2352        83,8413       -5,50254
           2373           2373        90,8386       -5,39611
           2394           2394        97,8553       -4,67235
           2415           2415        104,926       -2,30086
           2436           2436        111,976      -0,725976
           2457           2457        118,922       -2,29943
           2478           2478        125,856       -4,11428
           2499           2499        132,797       -5,63895
           2520           2520        139,667       -8,98912
           2541           2541        146,597       -10,6044
           2562           2562        153,644       -9,15179
           2583           2583        160,771       -5,74652
           2604           2604        167,772       -5,59078
           2625           2625        174,767       -5,59931
           2646           2646         181,76       -5,63288
           2667           2667        188,753       -5,68008
           2688           2688        195,747       -5,70692
           2695           2695        198,078       -5,72083

Results:
  Step	-30,15e-03 Wg^-1
   	-0,36 mW
  Onset	-66,70 °C
  Inflect. Pt.	-62,02 °C
  Midpoint	-61,42 °C

  Step	-50,83e-03 Wg^-1
   	-0,61 mW
  Onset	35,31 °C
  Inflect. Pt.	42,57 °C
  Midpoint	39,54 °C

  Integral	-349,35 mJ
    normalized	-29,11 Jg^-1
  Onset	138,45 °C
  Peak	150,13 °C

  Integral	-4,40 mJ
    normalized	-0,37 Jg^-1
  Onset	-67,35 °C
  Peak	-58,03 °C

  Step	-0,15 Wg^-1
   	-1,77 mW
  Onset	27,58 °C
  Inflect. Pt.	35,90 °C
  Midpoint	33,18 °C

  Integral	15,74 mJ
    normalized	1,31 Jg^-1
  Onset	96,99 °C
  Peak	150,54 °C

Sample:
  Ruben_CUTESTEACEPIA30, 12,0000 mg

________________________________________________________________________________
Not signed                                                         STARe SW 9.30