File: DSC/PLA-2-30.txt
Grazia_DSC_GR32                                                 01.02.2023 15:48
________________________________________________________________________________

Curve Name:
  Grazia_DSC_GR32, 01.02.2023 14:45:34
  Performed 01.02.2023 14:45:34
Curve Values:
          Index              t             Ts          Value
                           [s]           [°C]           [mW]
              0              0        -79,997       0,586054
             16             16        -74,706       -6,53204
             32             32        -69,382       -7,10472
             48             48        -64,052       -6,88886
             64             64        -58,722       -6,67894
             80             80        -53,392       -6,49896
             96             96        -48,062       -6,34055
            112            112        -42,732        -6,2159
            128            128        -37,403       -6,11888
            144            144        -32,073       -6,02762
            160            160        -26,744       -5,95825
            176            176        -21,415       -5,90784
            192            192        -16,086       -5,84703
            208            208        -10,757        -5,8174
            224            224         -5,429       -5,79766
            240            240         -0,100        -5,7867
            256            256          5,228       -5,77763
            272            272         10,556       -5,78623
            288            288         15,883       -5,82091
            304            304         21,209       -5,92243
            320            320         26,534       -6,09099
            336            336         31,857       -6,27386
            352            352         37,182       -6,41323
            368            368         42,508        -6,4919
            384            384         47,834       -6,55413
            400            400         53,160       -6,59798
            416            416         58,486       -6,63925
            432            432         63,812       -6,70307
            448            448         69,135       -6,81742
            464            464         74,458       -6,98186
            480            480         79,780       -7,14534
            496            496         85,102       -7,27901
            512            512         90,426       -7,37148
            528            528         95,755       -7,31281
            544            544        101,079       -7,38855
            560            560        106,404       -7,45626
            576            576        111,727       -7,56626
            592            592        117,048       -7,71922
            608            608        122,367       -7,94099
            624            624        127,681       -8,26155
            640            640        132,987       -8,79316
            656            656        138,283       -9,53112
            672            672        143,556       -10,8238
            688            688        148,798       -12,7979
            704            704        154,312       -8,31766
            720            720        159,682       -7,32585
            736            736        165,015       -7,20845
            752            752        170,344       -7,18337
            768            768        175,672       -7,17413
            784            784        181,000       -7,18121
            800            800        186,327       -7,19644
            816            816        191,655       -7,19983
            832            832        196,984       -7,19276
            848            848        197,324      -0,194795
            864            864        192,321        6,70596
            880            880        187,012        7,32884
            896            896        181,676        7,37302
            912            912        176,336        7,35993
            928            928        170,996        7,32845
            944            944        165,655        7,27962
            960            960        160,312        7,17775
            976            976        154,971        7,12798
            992            992        149,630        7,09668
           1008           1008        144,294        7,15135
           1024           1024        138,958        7,24859
           1040           1040        133,620        7,26246
           1056           1056        128,281        7,27337
           1072           1072        122,941        7,25992
           1088           1088        117,599        7,20056
           1104           1104        112,260        7,21421
           1120           1120        106,922        7,25289
           1136           1136        101,582        7,24276
           1152           1152         96,240         7,1639
           1168           1168         90,903        7,23576
           1184           1184         85,566        7,32186
           1200           1200         80,226        7,33579
           1216           1216         74,886        7,34215
           1232           1232         69,547        7,34517
           1248           1248         64,207        7,35481
           1264           1264         58,867        7,36727
           1280           1280         53,524        7,23347
           1296           1296         48,170        6,70714
           1312           1312         42,819         6,2285
           1328           1328         37,472         5,8516
           1344           1344         32,131        5,76132
           1360           1360         26,792        5,74248
           1376           1376         21,454        5,74422
           1392           1392         16,115        5,71567
           1408           1408         10,776        5,68702
           1424           1424          5,437        5,68364
           1440           1440     98,871e-03        5,69572
           1456           1456         -5,239        5,72162
           1472           1472        -10,577        5,76917
           1488           1488        -15,914        5,82708
           1504           1504        -21,252        5,88713
           1520           1520        -26,589        5,96503
           1536           1536        -31,927        6,04321
           1552           1552        -37,264        6,13679
           1568           1568        -42,601        6,24655
           1584           1584        -47,938        6,36147
           1600           1600        -53,275        6,48669
           1616           1616        -58,612        6,62624
           1632           1632        -63,949        6,74182
           1648           1648        -69,288         6,7046
           1664           1664        -74,627         6,4955
           1680           1680        -79,966        6,35458
           1696           1696        -74,690       -3,79551
           1712           1712        -69,378       -6,58638
           1728           1728        -64,050       -6,63075
           1744           1744        -58,720       -6,45864
           1760           1760        -53,390       -6,28128
           1776           1776        -48,060       -6,11372
           1792           1792        -42,729       -5,96785
           1808           1808        -37,400       -5,84627
           1824           1824        -32,070       -5,74645
           1840           1840        -26,740       -5,65303
           1856           1856        -21,410       -5,57202
           1872           1872        -16,081       -5,50303
           1888           1888        -10,751        -5,4454
           1904           1904         -5,422       -5,39241
           1920           1920    -92,892e-03       -5,35128
           1936           1936          5,236       -5,32218
           1952           1952         10,565       -5,30383
           1968           1968         15,894       -5,29677
           1984           1984         21,222       -5,29881
           2000           2000         26,550       -5,33669
           2016           2016         31,879       -5,34767
           2032           2032         37,206       -5,37254
           2048           2048         42,534       -5,42156
           2064           2064         47,860       -5,52553
           2080           2080         53,179       -5,88649
           2096           2096         58,478       -6,94729
           2112           2112         63,803       -7,01731
           2128           2128         69,132       -6,93019
           2144           2144         74,460       -6,89064
           2160           2160         79,788       -6,88852
           2176           2176         85,115       -6,88599
           2192           2192         90,442       -6,88831
           2208           2208         95,769       -6,88068
           2224           2224        101,098       -6,85769
           2240           2240        106,428       -6,77822
           2256           2256        111,763       -6,56576
           2272           2272        117,105       -6,17814
           2288           2288        122,447       -5,81611
           2304           2304        127,779       -5,73324
           2320           2320        133,097       -5,98703
           2336           2336        138,409       -6,40532
           2352           2352        143,716       -6,91722
           2368           2368        148,940       -9,39196
           2384           2384        154,283       -9,01068
           2400           2400        159,693       -7,06434
           2416           2416        165,026       -6,94588
           2432           2432        170,354       -6,94833
           2448           2448        175,682       -6,96203
           2464           2464        181,009       -6,97598
           2480           2480        186,337       -6,98376
           2496           2496        191,666       -6,97778
           2512           2512        196,994       -6,98143
           2520           2520        199,658       -6,98312

Results:
  Step	-78,81e-03 Wg^-1
  	-0,64 mW
  Onset	19,93 °C
  Inflect. Pt.	27,86 °C
  Midpoint	28,65 °C
  Angle Midpoint	26,69 °C

  Step	-70,04e-03 Wg^-1
  	-0,57 mW
  Onset	66,36 °C
  Inflect. Pt.	73,79 °C
  Midpoint	75,41 °C
  Angle Midpoint	74,56 °C

  Step	-0,21 Wg^-1
  	-1,67 mW
  Onset	52,07 °C
  Inflect. Pt.	56,82 °C
  Midpoint	55,04 °C
  Angle Midpoint	56,04 °C

  Integral	-249,57 mJ
    normalized	-30,81 Jg^-1
  Onset	137,44 °C
  Peak	148,13 °C

  Integral	66,97 mJ
    normalized	8,27 Jg^-1
  Onset	108,74 °C
  Peak	126,11 °C

  Integral	-75,76 mJ
    normalized	-9,35 Jg^-1
  Onset	144,86 °C
  Peak	151,24 °C

Sample:
  Grazia_DSC_GR32, 8,1000 mg

________________________________________________________________________________
Not signed                                                        STARe SW 16.40