File: DSC/PLA-4-30-brabender.txt
ClaudiaOlga_DSC_GR39                                            23.01.2023 11:12
________________________________________________________________________________

Curve Name:
  ClaudiaOlga_DSC_GR39, 23.01.2023 11:10:36
  Performed 23.01.2023 11:10:36
Curve Values:
          Index              t             Ts          Value
                           [s]           [°C]           [mW]
              0              0        -79,996       0,758476
             16             16        -74,693        -4,3936
             32             32        -69,372       -5,69276
             48             48        -64,043       -5,70212
             64             64        -58,712       -5,51557
             80             80        -53,381       -5,31994
             96             96        -48,050       -5,15817
            112            112        -42,720        -5,0279
            128            128        -37,389       -4,93083
            144            144        -32,059       -4,85623
            160            160        -26,729       -4,78231
            176            176        -21,399       -4,73728
            192            192        -16,069       -4,70995
            208            208        -10,740       -4,68484
            224            224         -5,410        -4,6529
            240            240    -79,957e-03       -4,60615
            256            256          5,250       -4,56729
            272            272         10,579       -4,55308
            288            288         15,908       -4,56816
            304            304         21,236       -4,63025
            320            320         26,563       -4,73995
            336            336         31,888       -4,90999
            352            352         37,210       -5,20324
            368            368         42,529        -5,6138
            384            384         47,851       -5,85787
            400            400         53,181       -5,80818
            416            416         58,512       -5,70507
            432            432         63,845       -5,52503
            448            448         69,179        -5,3017
            464            464         74,529       -4,61071
            480            480         79,862        -4,4767
            496            496         85,192       -4,45349
            512            512         90,517       -4,58014
            528            528         95,842       -4,71438
            544            544        101,169       -4,76808
            560            560        106,499       -4,74817
            576            576        111,832       -4,66291
            592            592        117,164       -4,58892
            608            608        122,490       -4,67405
            624            624        127,808        -4,9627
            640            640        133,117       -5,49807
            656            656        138,412       -6,33936
            672            672        143,687       -7,62528
            688            688        148,970       -8,67336
            704            704        154,390       -6,50068
            720            720        159,767       -5,36724
            736            736        165,102       -5,24497
            752            752        170,433       -5,20572
            768            768        175,763       -5,18501
            784            784        181,093       -5,16731
            800            800        186,423       -5,15906
            816            816        191,753       -5,15997
            832            832        197,082       -5,16497
            848            848        197,341       0,155537
            864            864        192,296        6,18191
            880            880        186,978        6,59986
            896            896        181,639        6,58182
            912            912        176,298        6,53195
            928            928        170,958        6,47308
            944            944        165,616        6,40123
            960            960        160,274        6,31806
            976            976        154,933        6,25488
            992            992        149,593        6,21725
           1008           1008        144,258         6,2844
           1024           1024        138,921         6,3237
           1040           1040        133,582        6,31189
           1056           1056        128,243        6,29277
           1072           1072        122,903        6,26572
           1088           1088        117,562        6,18802
           1104           1104        112,224            6,2
           1120           1120        106,887        6,24563
           1136           1136        101,547        6,20174
           1152           1152         96,205        6,13152
           1168           1168         90,869        6,20746
           1184           1184         85,531        6,24043
           1200           1200         80,193        6,24592
           1216           1216         74,854         6,2623
           1232           1232         69,515        6,27236
           1248           1248         64,177        6,29323
           1264           1264         58,838        6,30987
           1280           1280         53,499        6,31903
           1296           1296         48,161        6,33119
           1312           1312         42,822        6,33934
           1328           1328         37,482        6,31358
           1344           1344         32,141        6,21706
           1360           1360         26,797        5,98711
           1376           1376         21,453        5,69378
           1392           1392         16,109        5,44519
           1408           1408         10,767         5,2573
           1424           1424          5,428        5,16955
           1440           1440     88,398e-03         5,0924
           1456           1456         -5,250        5,06795
           1472           1472        -10,588        5,08007
           1488           1488        -15,925        5,10238
           1504           1504        -21,263          5,114
           1520           1520        -26,600        5,12897
           1536           1536        -31,937        5,15324
           1552           1552        -37,275         5,1895
           1568           1568        -42,611        5,24969
           1584           1584        -47,948        5,31164
           1600           1600        -53,285        5,38611
           1616           1616        -58,622        5,43803
           1632           1632        -63,959        5,51961
           1648           1648        -69,294        5,74724
           1664           1664        -74,633        5,54173
           1680           1680        -79,971        5,27979
           1696           1696        -74,687       -3,30152
           1712           1712        -69,371       -5,57691
           1728           1728        -64,042       -5,61584
           1744           1744        -58,711       -5,40861
           1760           1760        -53,380       -5,21967
           1776           1776        -48,049       -5,07165
           1792           1792        -42,719       -4,95804
           1808           1808        -37,388       -4,86423
           1824           1824        -32,058       -4,79534
           1840           1840        -26,728       -4,73213
           1856           1856        -21,398       -4,69342
           1872           1872        -16,069       -4,66399
           1888           1888        -10,739       -4,63882
           1904           1904         -5,409       -4,61899
           1920           1920    -79,873e-03       -4,60126
           1936           1936          5,249       -4,59625
           1952           1952         10,578       -4,62111
           1968           1968         15,906       -4,68306
           1984           1984         21,233       -4,81009
           2000           2000         26,557       -5,03798
           2016           2016         31,878       -5,35925
           2032           2032         37,200       -5,64785
           2048           2048         42,526       -5,75539
           2064           2064         47,855       -5,70894
           2080           2080         53,185       -5,65884
           2096           2096         58,514       -5,62373
           2112           2112         63,843       -5,58985
           2128           2128         69,172       -5,54465
           2144           2144         74,503       -5,45617
           2160           2160         79,841        -5,1602
           2176           2176         85,189       -4,55438
           2192           2192         90,539       -3,92402
           2208           2208         95,881       -3,54163
           2224           2224        101,210       -3,59459
           2240           2240        106,531       -3,84938
           2256           2256        111,851       -4,13989
           2272           2272        117,167       -4,49175
           2288           2288        122,483       -4,86045
           2304           2304        127,795       -5,30789
           2320           2320        133,088       -6,22591
           2336           2336        138,367       -7,45228
           2352           2352        143,630       -9,01817
           2368           2368        148,992       -8,15116
           2384           2384        154,437       -5,37941
           2400           2400        159,775       -5,18533
           2416           2416        165,105        -5,1582
           2432           2432        170,436       -5,14018
           2448           2448        175,766       -5,12927
           2464           2464        181,096       -5,11681
           2480           2480        186,426       -5,10926
           2496           2496        191,756       -5,10286
           2512           2512        197,085       -5,10582
           2520           2520        199,750       -5,10817

Results:
  Step	-0,14 Wg^-1
  	-1,15 mW
  Onset	31,53 °C
  Inflect. Pt.	39,54 °C
  Midpoint	37,52 °C
  Angle Midpoint	39,03 °C

  Integral	43,55 mJ
    normalized	5,38 Jg^-1
  Onset	69,94 °C
  Peak	77,20 °C

  Integral	-173,67 mJ
    normalized	-21,44 Jg^-1
  Onset	132,57 °C
  Peak	149,30 °C

  Step	-0,12 Wg^-1
  	-1,00 mW
  Onset	32,92 °C
  Inflect. Pt.	23,46 °C
  Midpoint	22,54 °C
  Angle Midpoint	25,78 °C

  Step	-0,14 Wg^-1
  	-1,12 mW
  Onset	20,47 °C
  Inflect. Pt.	30,55 °C
  Midpoint	28,97 °C
  Angle Midpoint	29,76 °C

  Integral	148,92 mJ
    normalized	18,38 Jg^-1
  Onset	78,13 °C
  Peak	97,21 °C

  Integral	-162,24 mJ
    normalized	-20,03 Jg^-1
  Onset	131,75 °C
  Peak	145,62 °C

Sample:
  ClaudiaOlga_DSC_GR39, 8,1000 mg

________________________________________________________________________________
Not signed                                                        STARe SW 16.40