File: DSC/PLA-3-30.txt
Ruben_CutacPLA30                                                16.11.2021 14:56
________________________________________________________________________________

Curve Name:
  Ruben_CutacPLA30, 16.11.2021 14:36:20
  Performed 16.11.2021 14:36:20
Curve Values:
          Index              t             Ts          Value
                           [s]           [°C]           [mW]
              0              0       -99,9985       0,539723
             21             21       -93,0203       -5,78689
             42             42       -86,0321       -7,50987
             63             63       -79,0349       -6,87897
             84             84       -72,0382       -6,49081
            105            105        -65,044       -6,52898
            126            126       -58,0507        -6,6594
            147            147       -51,0559       -6,56055
            168            168       -44,0609       -6,44611
            189            189       -37,0652       -6,26765
            210            210       -30,0701       -6,15309
            231            231       -23,0751       -6,05567
            252            252       -16,0803       -5,97762
            273            273        -9,0859       -5,92178
            294            294        -2,0912       -5,85417
            315            315        4,90363       -5,78755
            336            336        11,8982       -5,74064
            357            357        18,8919       -5,75026
            378            378         25,884       -5,83738
            399            399        32,8716       -6,12963
            420            420        39,8456       -7,01061
            441            441        46,8183       -7,86709
            462            462        53,8189       -7,49423
            483            483        60,8206       -7,10817
            504            504        67,8204       -6,81284
            525            525        74,8332        -6,0767
            546            546        81,8646       -4,74325
            567            567        88,8571       -4,82783
            588            588        95,8217       -5,81401
            609            609        102,791       -6,57804
            630            630        109,774       -6,90354
            651            651        116,759       -7,15299
            672            672        123,741       -7,45278
            693            693        130,716       -7,93633
            714            714        137,651       -9,49919
            735            735        144,568       -11,4676
            756            756        151,407       -15,3429
            777            777        158,646       -8,94981
            798            798        165,689       -7,68511
            819            819        172,693       -7,40129
            840            840        179,689       -7,35135
            861            861        186,681       -7,37574
            882            882        193,672       -7,44815
            903            903        198,554         -9,989
            924            924        192,367        8,36339
            945            945        185,398        9,25383
            966            966        178,387        9,20259
            987            987        171,375        9,09972
           1008           1008        164,361        8,96138
           1029           1029        157,347        8,82245
           1050           1050        150,334        8,70508
           1071           1071        143,321        8,57719
           1092           1092        136,312         8,5625
           1113           1113        129,306        8,62459
           1134           1134        122,297        8,60896
           1155           1155        115,283        8,45619
           1176           1176        108,271        8,34082
           1197           1197        101,261        8,29976
           1218           1218        94,2502        8,24018
           1239           1239        87,2393        8,16671
           1260           1260        80,2287        8,10206
           1281           1281        73,2185        8,04993
           1302           1302        66,2086        8,00954
           1323           1323        59,1987        7,97135
           1344           1344        52,1889        7,91653
           1365           1365        45,1793        7,86914
           1386           1386        38,1711         7,8808
           1407           1407        31,1511        7,32011
           1428           1428        24,1303        6,65971
           1449           1449        17,1148        6,20903
           1470           1470        10,1045        5,99878
           1491           1491        3,09638        5,89623
           1512           1512        -3,9117        5,78136
           1533           1533       -10,9187        5,72271
           1554           1554        -17,925        5,70837
           1575           1575       -24,9305         5,7367
           1596           1596       -31,9359         5,7699
           1617           1617       -38,9415        5,77046
           1638           1638       -45,9472        5,75554
           1659           1659       -52,9525        5,74572
           1680           1680       -59,9574        5,78007
           1701           1701       -66,9627         5,7349
           1722           1722       -73,9701        5,28594
           1743           1743       -80,9769        4,78233
           1764           1764       -87,9822        4,38164
           1785           1785       -94,9864        4,12909
           1806           1806       -97,9883        3,95078
           1827           1827       -90,9997      0,0726994
           1848           1848       -84,0326        -7,2514
           1869           1869       -77,0365       -6,87735
           1890           1890       -70,0396       -6,45039
           1911           1911       -63,0451       -6,45588
           1932           1932       -56,0511       -6,48702
           1953           1953        -49,055       -6,25903
           1974           1974       -42,0592       -6,08909
           1995           1995       -35,0636       -5,95441
           2016           2016       -28,0687       -5,87874
           2037           2037       -21,0734       -5,78381
           2058           2058       -14,0785       -5,71443
           2079           2079       -7,08435       -5,69465
           2100           2100     -0,0897176       -5,64766
           2121           2121        6,90513       -5,59409
           2142           2142        13,8991       -5,59786
           2163           2163        20,8916       -5,67627
           2184           2184        27,8815        -5,8707
           2205           2205        34,8648       -6,36278
           2226           2226         41,839       -7,21188
           2247           2247        48,8267       -7,40656
           2268           2268        55,8209       -7,31882
           2289           2289        62,8134       -7,30128
           2310           2310        69,8061        -7,2709
           2331           2331        76,7986       -7,25574
           2352           2352        83,7911       -7,24216
           2373           2373        90,7847       -7,19711
           2394           2394        97,7867       -6,88929
           2415           2415         104,82       -5,61525
           2436           2436        111,863       -4,16085
           2457           2457         118,85       -4,41975
           2478           2478        125,808       -5,47499
           2499           2499        132,756       -6,76666
           2520           2520        139,652        -9,4125
           2541           2541        146,521       -12,6227
           2562           2562        153,683       -8,13914
           2583           2583        160,711       -7,26257
           2604           2604        167,705       -7,22577
           2625           2625        174,699       -7,22256
           2646           2646        181,692       -7,23441
           2667           2667        188,684       -7,26127
           2688           2688        195,676       -7,31202
           2695           2695        198,006       -7,33282

Results:
  Step	-0,19 Wg^-1
   	-2,25 mW
  Onset	32,48 °C
  Inflect. Pt.	40,51 °C
  Midpoint	38,11 °C

  Step	-0,17 Wg^-1
   	-2,01 mW
  Onset	87,30 °C
  Inflect. Pt.	94,16 °C
  Midpoint	95,25 °C

  Integral	-350,76 mJ
    normalized	-30,24 Jg^-1
  Onset	142,42 °C
  Peak	150,39 °C

  Step	-0,14 Wg^-1
   	-1,59 mW
  Onset	30,71 °C
  Inflect. Pt.	38,52 °C
  Midpoint	35,80 °C

  Integral	16,48 mJ
    normalized	1,42 Jg^-1
  Onset	137,62 °C
  Peak	144,51 °C

Sample:
  Ruben_CutacPLA30, 11,6000 mg

________________________________________________________________________________
Not signed                                                         STARe SW 9.30